Time [min.]:	UV [A.U.]:	Conductivity [mS/cm]:			
0.000	0.0431	1.77			
0.017	0.0433	1.77			
0.033	0.0435	1.79			
0.050	0.0438	1.79			
0.067	0.0440	1.79			
0.083	0.0442	1.77			
0.100	0.0444	1.77			
0.117	0.0445	1.77			
0.133	0.0447	1.77			
0.150	0.0727	1.77			
0.167	0.1618	1.77			
0.183	0.2422	1.79			
0.200	0.2390	1.77			
0.217	0.2388	1.79			
0.233	0.2380	1.79			
0.250	0.2388	1.79			
0.267	0.2409	1.77			
0.283	0.2414	1.77			
0.300	0.2398	1.79			
0.317	0.2292	1.77			
0.333	0.2180	1.77			
0.350	0.2155	1.79			
0.367	0.2163	1.79			
0.383	0.2169	1.79			
0.400	0.2165	1.77			
0.417	0.2165	1.77			
0.433	0.2175	1.79			
0.450	0.2182	1.77			
0.467	0.2197	1.75			
0.483	0.2211	1.79			
0.500	0.2223	1.77			
0.517	0.2234	1.79			
0.533	0.2243	1.77			
0.550	0.2247	1.79			
0.567	0.2252	1.79			
0.583	0.2255	1.77			
0.600	0.2257	1.79			
0.617	0.2265	1.77			
0.633	0.2278	1.79			
0.650	0.2285	1.77			
0.667	0.2286	1.79			
0.683	0.2287	1.77			
0.700	0.2295	1.79			
0.717	0.2292	1.77			
0.733	0.2287	1.79			
0.750	0.2294	1.77			
0.767	0.2300	1.77			
0.783	0.2302	1.77			
0.800	0.2297	1.77			
0.817	0.2289	1.79			
0.833	0.2281	1.77			
0.850	0.2279	1.79			
0.867	0.2275	1.75			
0.883	0.2262	1.77			
0.900	0.2245	1.77			
0.917	0.2232	1.77			
0.933	0.2223	1.77			
0.950	0.2222	1.77			
0.967	0.2219	1.79			
0.983	0.2207	1.77			
1.000	0.2192	1.77			
1.017	0.2178	1.79			
1.033	0.2169	1.77			
1.050	0.2163	1.77			
1.067	0.2155	1.77			
1.083	0.2143	1.77			
1.100	0.2130	1.79			
1.117	0.2114	1.77			
1.133	0.2093	1.79			
1.150	0.2068	1.77			
1.167	0.2040	1.77			
1.183	0.2008	1.79			
1.200	0.1978	1.77			
1.217	0.1952	1.77			
1.233	0.1924	1.77			
1.250	0.1899	1.79			
1.267	0.1872	1.77			
1.283	0.1847	1.79			
1.300	0.1818	1.79			
1.317	0.1791	1.79			
1.333	0.1764	1.77			
1.350	0.1738	1.79			
1.367	0.1708	1.79			
1.383	0.1679	1.79			
1.400	0.1651	1.77			
1.417	0.1619	1.77			
1.433	0.1588	1.77			
1.450	0.1556	1.77			
1.467	0.1526	1.77			
1.483	0.1492	1.79			
1.500	0.1461	1.79			
1.517	0.1430	1.77			
1.533	0.1402	1.79			
1.550	0.1372	1.77			
1.567	0.1342	1.77			
1.583	0.1312	1.79			
1.600	0.1284	1.77			
1.617	0.1256	1.79			
1.633	0.1228	1.79			
1.650	0.1197	1.77			
1.667	0.1163	1.77			
1.683	0.1132	1.77			
1.700	0.1098	1.77			
1.717	0.1069	1.77			
1.733	0.1042	1.77			
1.750	0.1015	1.77			
1.767	0.0988	1.79			
1.783	0.0963	1.77			
1.800	0.0941	1.79			
1.817	0.0918	1.79			
1.833	0.0897	1.77			
1.850	0.0875	1.79			
1.867	0.0855	1.77			
1.883	0.0835	1.77			
1.900	0.0818	1.79			
1.917	0.0800	1.77			
1.933	0.0782	1.77			
1.950	0.0763	1.77			
1.967	0.0750	1.77			
1.983	0.0735	1.77			
2.000	0.0719	1.77			
2.017	0.0702	1.77			
2.033	0.0688	1.77			
2.050	0.0675	1.77			
2.067	0.0663	1.77			
2.083	0.0652	1.77			
2.100	0.0640	1.77			
2.117	0.0628	1.77			
2.133	0.0618	1.77			
2.150	0.0611	1.77			
2.167	0.0603	1.79			
2.183	0.0595	1.77			
2.200	0.0588	1.77			
2.217	0.0581	1.77			
2.233	0.0575	1.77			
2.250	0.0569	1.79			
2.267	0.0564	1.77			
2.283	0.0561	1.77			
2.300	0.0559	1.79			
2.317	0.0558	1.77			
2.333	0.0556	1.79			
2.350	0.0557	1.77			
2.367	0.0559	1.77			
2.383	0.0561	1.77			
2.400	0.0564	1.77			
2.417	0.0567	1.77			
2.433	0.0571	1.77			
2.450	0.0576	1.77			
2.467	0.0581	1.77			
2.483	0.0586	1.77			
2.500	0.0592	1.79			
2.517	0.0597	1.77			
2.533	0.0603	1.77			
2.550	0.0608	1.77			
2.567	0.0613	1.77			
2.583	0.0618	1.77			
2.600	0.0621	1.77			
2.617	0.0623	1.77			
2.633	0.0626	1.77			
2.650	0.0628	1.77			
2.667	0.0630	1.77			
2.683	0.0632	1.79			
2.700	0.0633	1.77			
2.717	0.0634	1.77			
2.733	0.0634	1.77			
2.750	0.0634	1.77			
2.767	0.0633	1.77			
2.783	0.0632	1.77			
2.800	0.0631	1.77			
2.817	0.0629	1.77			
2.833	0.0627	1.77			
2.850	0.0625	1.77			
2.867	0.0623	1.77			
2.883	0.0620	1.77			
2.900	0.0616	1.77			
2.917	0.0613	1.77			
2.933	0.0609	1.77			
2.950	0.0606	1.77			
2.967	0.0602	1.77			
2.983	0.0598	1.77			
3.000	0.0594	1.77			
3.017	0.0589	1.77			
3.033	0.0585	1.77			
3.050	0.0581	1.77			
3.067	0.0576	1.77			
3.083	0.0571	1.77			
3.100	0.0568	1.77			
3.117	0.0563	1.79			
3.133	0.0556	1.77			
3.150	0.0552	1.79			
3.167	0.0547	1.77			
3.183	0.0541	1.77			
3.200	0.0534	1.77			
3.217	0.0529	1.77			
3.233	0.0524	1.77			
3.250	0.0518	1.77			
3.267	0.0512	1.77			
3.283	0.0506	1.77			
3.300	0.0501	1.77			
3.317	0.0496	1.77			
3.333	0.0490	1.77			
3.350	0.0485	1.77			
3.367	0.0479	1.77			
3.383	0.0474	1.77			
3.400	0.0469	1.77			
3.417	0.0465	1.77			
3.433	0.0460	1.79			
3.450	0.0455	1.77			
3.467	0.0452	1.77			
3.483	0.0448	1.79			
3.500	0.0445	1.77			
3.517	0.0442	1.76			
3.533	0.0439	1.77			
3.550	0.0436	1.77			
3.567	0.0434	1.77			
3.583	0.0433	1.79			
3.600	0.0432	1.77			
3.617	0.0433	1.77			
3.633	0.0433	1.77			
3.650	0.0435	1.79			
3.667	0.0437	1.77			
3.683	0.0439	1.79			
3.700	0.0443	1.77			
3.717	0.0448	1.77			
3.733	0.0455	1.79			
3.750	0.0463	1.77			
3.767	0.0471	1.79			
3.783	0.0481	1.77			
3.800	0.0493	1.77			
3.817	0.0506	1.77			
3.833	0.0522	1.77			
3.850	0.0538	1.77			
3.867	0.0555	1.79			
3.883	0.0573	1.77			
3.900	0.0591	1.79			
3.917	0.0610	1.77			
3.933	0.0630	1.77			
3.950	0.0654	1.79			
3.967	0.0685	1.77			
3.983	0.0720	1.77			
4.000	0.0759	1.77			
4.017	0.0797	1.77			
4.033	0.0834	1.77			
4.050	0.0865	1.77			
4.067	0.0894	1.78			
4.083	0.0920	1.78			
4.100	0.0945	1.80			
4.117	0.0971	1.77			
4.133	0.0995	1.80			
4.150	0.1018	1.78			
4.167	0.1039	1.78			
4.183	0.1061	1.78			
4.200	0.1082	1.78			
4.217	0.1102	1.78			
4.233	0.1120	1.80			
4.250	0.1134	1.78			
4.267	0.1150	1.78			
4.283	0.1164	1.78			
4.300	0.1175	1.78			
4.317	0.1183	1.78			
4.333	0.1192	1.80			
4.350	0.1200	1.78			
4.367	0.1205	1.80			
4.383	0.1208	1.78			
4.400	0.1209	1.76			
4.417	0.1209	1.80			
4.433	0.1206	1.78			
4.450	0.1203	1.78			
4.467	0.1199	1.78			
4.483	0.1193	1.78			
4.500	0.1186	1.78			
4.517	0.1177	1.78			
4.533	0.1169	1.78			
4.550	0.1161	1.78			
4.567	0.1152	1.80			
4.583	0.1142	1.78			
4.600	0.1131	1.78			
4.617	0.1121	1.78			
4.633	0.1111	1.78			
4.650	0.1099	1.78			
4.667	0.1088	1.80			
4.683	0.1081	1.78			
4.700	0.1073	1.78			
4.717	0.1063	1.78			
4.733	0.1050	1.78			
4.750	0.1038	1.78			
4.767	0.1025	1.78			
4.783	0.1014	1.78			
4.800	0.1005	1.78			
4.817	0.0996	1.80			
4.833	0.0988	1.78			
4.850	0.0980	1.78			
4.867	0.0973	1.78			
4.883	0.0967	1.80			
4.900	0.0961	1.78			
4.917	0.0956	1.78			
4.933	0.0951	1.78			
4.950	0.0946	1.78			
4.967	0.0943	1.78			
4.983	0.0940	1.80			
5.000	0.0937	1.78			
5.017	0.0933	1.80			
5.033	0.0930	1.78			
5.050	0.0928	1.80			
5.067	0.0927	1.80			
5.083	0.0926	1.78			
5.100	0.0923	1.78			
5.117	0.0920	1.78			
5.133	0.0916	1.78			
5.150	0.0911	1.78			
5.167	0.0906	1.78			
5.183	0.0901	1.78			
5.200	0.0895	1.78			
5.217	0.0888	1.78			
5.233	0.0882	1.78			
5.250	0.0876	1.78			
5.267	0.0870	1.80			
5.283	0.0863	1.78			
5.300	0.0855	1.78			
5.317	0.0845	1.78			
5.333	0.0833	1.78			
5.350	0.0820	1.78			
5.367	0.0806	1.78			
5.383	0.0790	1.78			
5.400	0.0773	1.78			
5.417	0.0757	1.80			
5.433	0.0741	1.78			
5.450	0.0727	1.78			
5.467	0.0713	1.78			
5.483	0.0701	1.78			
5.500	0.0691	1.78			
5.517	0.0681	1.78			
5.533	0.0672	1.78			
5.550	0.0663	1.78			
5.567	0.0655	1.78			
5.583	0.0647	1.78			
5.600	0.0640	1.78			
5.617	0.0632	1.78			
5.633	0.0623	1.78			
5.650	0.0615	1.80			
5.667	0.0608	1.78			
5.683	0.0598	1.80			
5.700	0.0587	1.78			
5.717	0.0577	1.78			
5.733	0.0567	1.78			
5.750	0.0558	1.78			
5.767	0.0549	1.78			
5.783	0.0540	1.76			
5.800	0.0531	1.78			
5.817	0.0523	1.78			
5.833	0.0515	1.78			
5.850	0.0507	1.78			
5.867	0.0499	1.76			
5.883	0.0492	1.80			
5.900	0.0484	1.76			
5.917	0.0477	1.78			
5.933	0.0470	1.78			
5.950	0.0464	1.78			
5.967	0.0457	1.78			
5.983	0.0449	1.78			
6.000	0.0443	1.78			
6.017	0.0436	1.78			
6.033	0.0430	1.78			
6.050	0.0423	1.78			
6.067	0.0417	1.78			
6.083	0.0410	1.78			
6.100	0.0405	1.78			
6.117	0.0399	1.78			
6.133	0.0394	1.78			
6.150	0.0388	1.78			
6.167	0.0383	1.78			
6.183	0.0378	1.78			
6.200	0.0374	1.78			
6.217	0.0369	1.78			
6.233	0.0364	1.76			
6.250	0.0358	1.78			
6.267	0.0354	1.78			
6.283	0.0350	1.78			
6.300	0.0347	1.78			
6.317	0.0346	1.78			
6.333	0.0345	1.78			
6.350	0.0343	1.76			
6.367	0.0339	1.78			
6.383	0.0334	1.78			
6.400	0.0329	1.78			
6.417	0.0324	1.78			
6.433	0.0319	1.80			
6.450	0.0314	1.78			
6.467	0.0310	1.78			
6.483	0.0306	1.78			
6.500	0.0303	1.78			
6.517	0.0299	1.78			
6.533	0.0295	1.78			
6.550	0.0292	1.80			
6.567	0.0290	1.78			
6.583	0.0288	1.76			
6.600	0.0287	1.78			
6.617	0.0286	1.78			
6.633	0.0286	1.80			
6.650	0.0285	1.78			
6.667	0.0285	1.80			
6.683	0.0285	1.78			
6.700	0.0286	1.78			
6.717	0.0286	1.78			
6.733	0.0288	1.78			
6.750	0.0288	1.78			
6.767	0.0288	1.76			
6.783	0.0287	1.78			
6.800	0.0286	1.76			
6.817	0.0286	1.78			
6.833	0.0286	1.78			
6.850	0.0285	1.78			
6.867	0.0285	1.78			
6.883	0.0284	1.78			
6.900	0.0283	1.80			
6.917	0.0282	1.78			
6.933	0.0281	1.80			
6.950	0.0280	1.78			
6.967	0.0279	1.78			
6.983	0.0277	1.78			
7.000	0.0276	1.78			
7.017	0.0275	1.78			
7.033	0.0273	1.78			
7.050	0.0271	1.78			
7.067	0.0270	1.78			
7.083	0.0268	1.78			
7.100	0.0267	1.80			
7.117	0.0265	1.78			
7.133	0.0265	1.80			
7.150	0.0263	1.78			
7.167	0.0262	1.76			
7.183	0.0260	1.78			
7.200	0.0259	1.78			
7.217	0.0258	1.80			
7.233	0.0258	1.80			
7.250	0.0258	1.78			
7.267	0.0259	1.78			
7.283	0.0259	1.78			
7.300	0.0260	1.80			
7.317	0.0260	1.78			
7.333	0.0259	1.78			
7.350	0.0257	1.80			
7.367	0.0257	1.78			
7.383	0.0257	1.78			
7.400	0.0258	1.80			
7.417	0.0258	1.78			
7.433	0.0258	1.78			
7.450	0.0259	1.80			
7.467	0.0260	1.80			
7.483	0.0260	1.78			
7.500	0.0261	1.78			
7.517	0.0262	1.78			
7.533	0.0263	1.80			
7.550	0.0264	1.78			
7.567	0.0265	1.80			
7.583	0.0266	1.78			
7.600	0.0266	1.78			
7.617	0.0267	1.80			
7.633	0.0268	1.78			
7.650	0.0269	1.78			
7.667	0.0270	1.78			
7.683	0.0271	1.80			
7.700	0.0271	1.80			
7.717	0.0271	1.78			
7.733	0.0271	1.78			
7.750	0.0271	1.80			
7.767	0.0271	1.78			
7.783	0.0272	1.78			
7.800	0.0273	1.78			
7.817	0.0276	1.78			
7.833	0.0277	1.78			
7.850	0.0275	1.80			
7.867	0.0273	1.78			
7.883	0.0270	1.80			
7.900	0.0270	1.80			
7.917	0.0268	1.78			
7.933	0.0267	1.80			
7.950	0.0266	1.78			
7.967	0.0266	1.80			
7.983	0.0266	1.78			
8.000	0.0267	1.80			
8.017	0.0268	1.78			
8.033	0.0270	1.80			
8.050	0.0271	1.78			
8.067	0.0272	1.78			
8.083	0.0275	1.78			
8.100	0.0277	1.80			
8.117	0.0279	1.80			
8.133	0.0283	1.78			
8.150	0.0284	1.80			
8.167	0.0284	1.80			
8.183	0.0289	1.78			
8.200	0.0292	1.78			
8.217	0.0297	1.78			
8.233	0.0296	1.80			
8.250	0.0295	1.78			
8.267	0.0296	1.80			
8.283	0.0297	1.80			
8.300	0.0297	1.78			
8.317	0.0297	1.80			
8.333	0.0298	1.78			
8.350	0.0299	1.78			
8.367	0.0299	1.80			
8.383	0.0300	1.80			
8.400	0.0300	1.80			
8.417	0.0301	1.80			
8.433	0.0301	1.78			
8.450	0.0302	1.80			
8.467	0.0302	1.78			
8.483	0.0303	1.80			
8.500	0.0303	1.78			
8.517	0.0306	1.78			
8.533	0.0310	1.78			
8.550	0.0311	1.78			
8.567	0.0309	1.80			
8.583	0.0311	1.78			
8.600	0.0312	1.80			
8.617	0.0313	1.78			
8.633	0.0314	1.78			
8.650	0.0314	1.78			
8.667	0.0313	1.78			
8.683	0.0313	1.78			
8.700	0.0312	1.78			
8.717	0.0312	1.80			
8.733	0.0312	1.78			
8.750	0.0313	1.78			
8.767	0.0313	1.78			
8.783	0.0313	1.78			
8.800	0.0314	1.80			
8.817	0.0314	1.78			
8.833	0.0315	1.78			
8.850	0.0316	1.78			
8.867	0.0317	1.78			
8.883	0.0317	1.78			
8.900	0.0318	1.78			
8.917	0.0318	1.78			
8.933	0.0319	1.80			
8.950	0.0320	1.78			
8.967	0.0321	1.78			
8.983	0.0319	1.80			
9.000	0.0320	1.80			
9.017	0.0320	1.78			
9.033	0.0320	1.78			
9.050	0.0320	1.78			
9.067	0.0321	1.78			
9.083	0.0321	1.80			
9.100	0.0322	1.78			
9.117	0.0323	1.78			
9.133	0.0325	1.78			
9.150	0.0326	1.80			
9.167	0.0328	1.80			
9.183	0.0330	1.78			
9.200	0.0332	1.80			
9.217	0.0333	1.78			
9.233	0.0335	1.78			
9.250	0.0336	1.78			
9.267	0.0335	1.78			
9.283	0.0336	1.78			
9.300	0.0337	1.78			
9.317	0.0337	1.78			
9.333	0.0337	1.78			
9.350	0.0337	1.78			
9.367	0.0338	1.78			
9.383	0.0339	1.78			
9.400	0.0339	1.80			
9.417	0.0340	1.80			
9.433	0.0341	1.79			
9.450	0.0343	1.78			
9.467	0.0344	1.79			
9.483	0.0346	1.80			
9.500	0.0347	1.79			
9.517	0.0348	1.80			
9.533	0.0349	1.79			
9.550	0.0351	1.78			
9.567	0.0352	1.79			
9.583	0.0352	1.79			
9.600	0.0353	1.80			
9.617	0.0354	1.79			
9.633	0.0356	1.80			
9.650	0.0357	1.79			
9.667	0.0357	1.80			
9.683	0.0356	1.79			
9.700	0.0355	1.80			
9.717	0.0354	1.79			
9.733	0.0352	1.80			
9.750	0.0351	1.80			
9.767	0.0351	1.79			
9.783	0.0351	1.79			
9.800	0.0351	1.80			
9.817	0.0352	1.79			
9.833	0.0353	1.79			
9.850	0.0353	1.80			
9.867	0.0353	1.79			
9.883	0.0353	1.80			
9.900	0.0353	1.79			
9.917	0.0353	1.79			
9.933	0.0354	1.80			
9.950	0.0355	1.77			
9.967	0.0357	1.79			
9.983	0.0357	1.80			
10.000	0.0358	1.79			
10.017	0.0358	1.80			
10.033	0.0357	1.79			
10.050	0.0357	1.79			
10.067	0.0358	1.79			
10.083	0.0359	1.79			
10.100	0.0360	1.79			
10.117	0.0361	1.80			
10.133	0.0361	1.79			
10.150	0.0362	1.80			
10.167	0.0363	1.79			
10.183	0.0365	1.80			
10.200	0.0366	1.79			
10.217	0.0367	1.80			
10.233	0.0368	1.79			
10.250	0.0369	1.79			
10.267	0.0370	1.80			
10.283	0.0370	1.79			
10.300	0.0371	1.80			
10.317	0.0371	1.80			
10.333	0.0372	1.79			
10.350	0.0372	1.79			
10.367	0.0374	1.80			
10.383	0.0375	1.79			
10.400	0.0374	1.79			
10.417	0.0374	1.80			
10.433	0.0375	1.79			
10.450	0.0376	1.80			
10.467	0.0376	1.79			
10.483	0.0377	1.80			
10.500	0.0377	1.79			
10.517	0.0378	1.80			
10.533	0.0380	1.80			
10.550	0.0382	1.79			
10.567	0.0384	1.79			
10.583	0.0386	1.79			
10.600	0.0387	1.79			
10.617	0.0388	1.80			
10.633	0.0388	1.79			
10.650	0.0387	1.79			
10.667	0.0386	1.79			
10.683	0.0385	1.79			
10.700	0.0382	1.79			
10.717	0.0381	1.79			
10.733	0.0379	1.79			
10.750	0.0376	1.79			
10.767	0.0375	1.79			
10.783	0.0375	1.80			
10.800	0.0376	1.79			
10.817	0.0375	1.79			
10.833	0.0375	1.79			
